#  Created by Sandify
#  https://sandify.org
#  Version: 0.2.4
#
#  Machine type: Polar
#    Max radius (mm): 280
#    Start point: perimeter
#    End point: none
#  Content type: shape
#  Layer:
#    Shape: Circle
#    Name: polygon
#    Number of lobes: 1
#    Direction: clockwise
#    Visible: true
#    Initial width: 24
#    Initial height: 24
#    X offset: 0
#    Y offset: 0
#    Rotate (degrees): 0
#    Reverse path: true
#    Number of loops: 10
#    When transforming shape: smear
#    Scale: true
#      Scale (+/-): 100
#      Scale by: constant
#    Spin: false
#    Track: false
#    Fine tuning:
#      Connect to next layer: line
#      Draw portion of path (%): 100
#      Backtrack at end (%): 0
#      Rotate starting point (%): 0
#  Reverse export path: false
#
# File name: 'sandify2'
#

1.61988 1.00000
1.61988 0.99286
1.61988 0.98571
1.61988 0.97857
1.61988 0.97143
1.61988 0.96429
1.61988 0.95714
1.61988 0.95000
1.61988 0.94286
1.61988 0.94219
1.62746 0.94194
1.63504 0.94174
1.64263 0.94160
1.65021 0.94151
1.65780 0.94147
1.66539 0.94149
1.66897 0.94152
1.67655 0.94127
1.68414 0.94107
1.69173 0.94093
1.69932 0.94084
1.70691 0.94080
1.71451 0.94082
1.71806 0.94085
1.72565 0.94060
1.73324 0.94040
1.74083 0.94026
1.74843 0.94017
1.75603 0.94013
1.76362 0.94015
1.76715 0.94018
1.77474 0.93993
1.78234 0.93973
1.78994 0.93959
1.79754 0.93950
1.80514 0.93946
1.81275 0.93948
1.81623 0.93951
1.82383 0.93926
1.83143 0.93906
1.83904 0.93892
1.84665 0.93883
1.85426 0.93879
1.86186 0.93881
1.86532 0.93884
1.87293 0.93859
1.88053 0.93839
1.88815 0.93825
1.89576 0.93816
1.90337 0.93812
1.91099 0.93814
1.91441 0.93817
1.92202 0.93792
1.92963 0.93772
1.93725 0.93758
1.94487 0.93749
1.95249 0.93745
1.96011 0.93747
1.96349 0.93750
1.97111 0.93725
1.97873 0.93705
1.98635 0.93691
1.99397 0.93682
2.00160 0.93678
2.00922 0.93680
2.01258 0.93683
2.02020 0.93658
2.02783 0.93638
2.03545 0.93624
2.04308 0.93615
2.05071 0.93612
2.05834 0.93614
2.06167 0.93616
2.06930 0.93591
2.07693 0.93571
2.08456 0.93557
2.09219 0.93548
2.09983 0.93544
2.10746 0.93547
2.11076 0.93549
2.11839 0.93524
2.12603 0.93504
2.13366 0.93490
2.14130 0.93481
2.14895 0.93478
2.15659 0.93480
2.15985 0.93482
2.16748 0.93457
2.17512 0.93437
2.18277 0.93423
2.19041 0.93414
2.19806 0.93411
2.20571 0.93413
2.20893 0.93415
2.21658 0.93390
2.22422 0.93370
2.23187 0.93356
2.23952 0.93347
2.24717 0.93344
2.25483 0.93346
2.25802 0.93348
2.26567 0.93323
2.27332 0.93303
2.28097 0.93289
2.28863 0.93280
2.29629 0.93277
2.30395 0.93279
2.30711 0.93281
2.31476 0.93256
2.32242 0.93236
2.33008 0.93222
2.33774 0.93213
2.34540 0.93210
2.35307 0.93212
2.35619 0.93214
2.36385 0.93189
2.37152 0.93169
2.37918 0.93155
2.38685 0.93146
2.39452 0.93143
2.40219 0.93145
2.40528 0.93147
2.41295 0.93122
2.42061 0.93102
2.42829 0.93088
2.43596 0.93079
2.44363 0.93076
2.45131 0.93078
2.45437 0.93080
2.46204 0.93055
2.46971 0.93035
2.47739 0.93021
2.48507 0.93012
2.49275 0.93009
2.50043 0.93011
2.50346 0.93013
2.51113 0.92988
2.51881 0.92968
2.52649 0.92954
2.53418 0.92945
2.54186 0.92942
2.54955 0.92944
2.55254 0.92946
2.56023 0.92921
2.56791 0.92901
2.57560 0.92887
2.58329 0.92878
2.59098 0.92875
2.59867 0.92877
2.60163 0.92879
2.60932 0.92854
2.61701 0.92834
2.62470 0.92820
2.63240 0.92811
2.64009 0.92808
2.64779 0.92810
2.65072 0.92812
2.65841 0.92787
2.66611 0.92767
2.67381 0.92753
2.68151 0.92744
2.68921 0.92741
2.69691 0.92743
2.69981 0.92746
2.70750 0.92720
2.71520 0.92701
2.72291 0.92686
2.73062 0.92677
2.73832 0.92674
2.74603 0.92676
2.74890 0.92679
2.75660 0.92653
2.76431 0.92634
2.77202 0.92619
2.77973 0.92610
2.78744 0.92607
2.79515 0.92609
2.79798 0.92612
2.80569 0.92586
2.81340 0.92566
2.82112 0.92552
2.82883 0.92543
2.83655 0.92540
2.84427 0.92542
2.84707 0.92545
2.85478 0.92519
2.86250 0.92499
2.87022 0.92485
2.87795 0.92476
2.88567 0.92473
2.89339 0.92475
2.89615 0.92478
2.90387 0.92452
2.91160 0.92432
2.91932 0.92418
2.92705 0.92409
2.93478 0.92406
2.94251 0.92409
2.94524 0.92411
2.95297 0.92385
2.96070 0.92366
2.96843 0.92351
2.97616 0.92343
2.98390 0.92339
2.99163 0.92342
2.99433 0.92344
3.00206 0.92318
3.00980 0.92299
3.01753 0.92284
3.02527 0.92276
3.03302 0.92272
3.04076 0.92275
3.04342 0.92277
3.05116 0.92252
3.05890 0.92232
3.06664 0.92218
3.07439 0.92209
3.08213 0.92206
3.08988 0.92208
3.09250 0.92210
3.10025 0.92185
3.10799 0.92165
3.11574 0.92151
3.12349 0.92142
3.13125 0.92139
3.13900 0.92141
3.14159 0.92143
3.14934 0.92118
3.15709 0.92098
3.16485 0.92083
3.17260 0.92075
3.18036 0.92072
3.18812 0.92074
3.19068 0.92076
3.19843 0.92051
3.20619 0.92031
3.21395 0.92016
3.22171 0.92008
3.22948 0.92004
3.23724 0.92007
3.23977 0.92009
3.24753 0.91983
3.25529 0.91964
3.26306 0.91949
3.27083 0.91941
3.27859 0.91938
3.28636 0.91940
3.28886 0.91942
3.29662 0.91917
3.30439 0.91897
3.31216 0.91883
3.31993 0.91874
3.32771 0.91871
3.33548 0.91873
3.33794 0.91875
3.34571 0.91850
3.35349 0.91830
3.36126 0.91816
3.36904 0.91807
3.37682 0.91804
3.38461 0.91806
3.38703 0.91808
3.39481 0.91783
3.40259 0.91763
3.41037 0.91749
3.41815 0.91740
3.42594 0.91737
3.43373 0.91739
3.43612 0.91741
3.44390 0.91716
3.45169 0.91696
3.45947 0.91682
3.46727 0.91673
3.47506 0.91670
3.48285 0.91672
3.48520 0.91674
3.49299 0.91649
3.50078 0.91629
3.50858 0.91615
3.51637 0.91606
3.52417 0.91603
3.53197 0.91605
3.53429 0.91607
3.54208 0.91582
3.54988 0.91562
3.55768 0.91548
3.56548 0.91539
3.57329 0.91536
3.58109 0.91539
3.58338 0.91540
3.59118 0.91515
3.59898 0.91495
3.60679 0.91481
3.61460 0.91472
3.62240 0.91469
3.63021 0.91471
3.63246 0.91473
3.64027 0.91448
3.64808 0.91428
3.65589 0.91414
3.66370 0.91405
3.67152 0.91402
3.67933 0.91405
3.68155 0.91406
3.68936 0.91381
3.69718 0.91361
3.70500 0.91347
3.71281 0.91338
3.72064 0.91335
3.72846 0.91337
3.73064 0.91339
3.73846 0.91314
3.74628 0.91294
3.75410 0.91280
3.76193 0.91271
3.76975 0.91268
3.77758 0.91271
3.77973 0.91272
3.78755 0.91247
3.79537 0.91227
3.80320 0.91213
3.81103 0.91204
3.81887 0.91201
3.82670 0.91204
3.82881 0.91205
3.83664 0.91180
3.84447 0.91160
3.85231 0.91146
3.86014 0.91137
3.86798 0.91134
3.87582 0.91137
3.87790 0.91138
3.88574 0.91113
3.89357 0.91093
3.90141 0.91079
3.90926 0.91070
3.91710 0.91067
3.92494 0.91070
3.92699 0.91071
3.93483 0.91046
3.94267 0.91026
3.95052 0.91012
3.95837 0.91003
3.96622 0.91000
3.97407 0.91003
3.97608 0.91005
3.98392 0.90979
3.99177 0.90959
3.99962 0.90945
4.00748 0.90936
4.01533 0.90933
4.02319 0.90936
4.02517 0.90937
4.03302 0.90912
4.04087 0.90892
4.04873 0.90878
4.05659 0.90869
4.06445 0.90866
4.07231 0.90869
4.07425 0.90870
4.08211 0.90845
4.08997 0.90825
4.09783 0.90811
4.10570 0.90802
4.11357 0.90799
4.12143 0.90802
4.12334 0.90804
4.13120 0.90778
4.13907 0.90758
4.14694 0.90744
4.15481 0.90736
4.16268 0.90733
4.17055 0.90735
4.17243 0.90737
4.18030 0.90711
4.18817 0.90691
4.19604 0.90677
4.20392 0.90669
4.21180 0.90666
4.21968 0.90668
4.22152 0.90670
4.22939 0.90644
4.23727 0.90624
4.24515 0.90610
4.25303 0.90602
4.26091 0.90599
4.26880 0.90601
4.27060 0.90603
4.27848 0.90577
4.28637 0.90557
4.29425 0.90543
4.30214 0.90534
4.31003 0.90531
4.31792 0.90534
4.31969 0.90536
4.32758 0.90510
4.33547 0.90490
4.34336 0.90476
4.35125 0.90468
4.35915 0.90465
4.36704 0.90467
4.36878 0.90469
4.37667 0.90443
4.38457 0.90423
4.39246 0.90409
4.40036 0.90401
4.40827 0.90398
4.41617 0.90401
4.41787 0.90402
4.42576 0.90376
4.43366 0.90357
4.44157 0.90342
4.44948 0.90334
4.45738 0.90331
4.46529 0.90333
4.46695 0.90335
4.47485 0.90309
4.48276 0.90289
4.49067 0.90275
4.49858 0.90267
4.50650 0.90264
4.51441 0.90266
4.51604 0.90268
4.52395 0.90242
4.53186 0.90222
4.53978 0.90208
4.54770 0.90200
4.55561 0.90197
4.56353 0.90200
4.56513 0.90201
4.57304 0.90175
4.58096 0.90156
4.58888 0.90141
4.59680 0.90133
4.60473 0.90130
4.61265 0.90133
4.61421 0.90134
4.62214 0.90109
4.63006 0.90089
4.63799 0.90074
4.64592 0.90066
4.65385 0.90063
4.66178 0.90066
4.66330 0.90067
4.67123 0.90042
4.67916 0.90022
4.68709 0.90007
4.69503 0.89999
4.70297 0.89996
4.71090 0.89999
4.71239 0.90000
4.72032 0.89974
4.72826 0.89955
4.73620 0.89940
4.74414 0.89932
4.75208 0.89929
4.76002 0.89932
4.76148 0.89933
4.76942 0.89907
4.77736 0.89888
4.78530 0.89873
4.79325 0.89865
4.80120 0.89862
4.80915 0.89865
4.81057 0.89866
4.81851 0.89840
4.82646 0.89821
4.83441 0.89806
4.84236 0.89798
4.85032 0.89795
4.85827 0.89798
4.85965 0.89799
4.86760 0.89774
4.87556 0.89754
4.88352 0.89739
4.89147 0.89731
4.89943 0.89728
4.90740 0.89731
4.90874 0.89732
4.91669 0.89706
4.92465 0.89687
4.93262 0.89672
4.94058 0.89664
4.94855 0.89661
4.95651 0.89664
4.95783 0.89665
4.96579 0.89639
4.97375 0.89620
4.98172 0.89605
4.98969 0.89597
4.99767 0.89594
5.00564 0.89597
5.00691 0.89598
5.01488 0.89573
5.02285 0.89553
5.03083 0.89538
5.03881 0.89530
5.04678 0.89527
5.05476 0.89530
5.05600 0.89531
5.06397 0.89506
5.07195 0.89486
5.07993 0.89472
5.08792 0.89463
5.09590 0.89460
5.10389 0.89463
5.10509 0.89464
5.11307 0.89439
5.12105 0.89419
5.12904 0.89405
5.13703 0.89396
5.14502 0.89393
5.15301 0.89396
5.15417 0.89397
5.16216 0.89372
5.17015 0.89352
5.17814 0.89338
5.18614 0.89329
5.19413 0.89327
5.20213 0.89330
5.20326 0.89330
5.21125 0.89305
5.21925 0.89285
5.22725 0.89271
5.23525 0.89262
5.24325 0.89260
5.25125 0.89263
5.25235 0.89264
5.26035 0.89238
5.26835 0.89218
5.27636 0.89204
5.28436 0.89196
5.29237 0.89193
5.30038 0.89196
5.30144 0.89197
5.30944 0.89171
5.31745 0.89151
5.32546 0.89137
5.33347 0.89128
5.34149 0.89126
5.34950 0.89128
5.35053 0.89129
5.35854 0.89104
5.36655 0.89084
5.37457 0.89070
5.38259 0.89061
5.39061 0.89059
5.39863 0.89062
5.39961 0.89062
5.40763 0.89037
5.41565 0.89017
5.42367 0.89003
5.43170 0.88994
5.43973 0.88992
5.44775 0.88995
5.44870 0.88996
5.45672 0.88970
5.46475 0.88950
5.47278 0.88936
5.48081 0.88928
5.48884 0.88925
5.49687 0.88928
5.49779 0.88929
5.50582 0.88903
5.51385 0.88883
5.52188 0.88869
5.52992 0.88861
5.53796 0.88858
5.54600 0.88861
5.54688 0.88862
5.55491 0.88836
5.56295 0.88816
5.57099 0.88802
5.57903 0.88794
5.58708 0.88791
5.59512 0.88794
5.59596 0.88795
5.60400 0.88769
5.61205 0.88749
5.62009 0.88735
5.62814 0.88727
5.63619 0.88724
5.64425 0.88727
5.64505 0.88728
5.65310 0.88702
5.66115 0.88682
5.66920 0.88668
5.67726 0.88660
5.68531 0.88657
5.69337 0.88660
5.69414 0.88661
5.70219 0.88635
5.71025 0.88615
5.71831 0.88601
5.72637 0.88593
5.73443 0.88590
5.74249 0.88593
5.74322 0.88594
5.75128 0.88568
5.75934 0.88548
5.76741 0.88534
5.77548 0.88526
5.78355 0.88523
5.79161 0.88526
5.79231 0.88527
5.80038 0.88501
5.80845 0.88481
5.81652 0.88467
5.82459 0.88459
5.83267 0.88456
5.84074 0.88459
5.84140 0.88460
5.84947 0.88434
5.85754 0.88414
5.86562 0.88400
5.87370 0.88392
5.88178 0.88389
5.88986 0.88392
5.89049 0.88393
5.89856 0.88367
5.90664 0.88347
5.91473 0.88333
5.92281 0.88325
5.93090 0.88322
5.93899 0.88326
5.93957 0.88326
5.94766 0.88300
5.95574 0.88280
5.96383 0.88266
5.97193 0.88258
5.98002 0.88255
5.98811 0.88259
5.98866 0.88259
5.99675 0.88233
6.00484 0.88213
6.01294 0.88199
6.02104 0.88191
6.02914 0.88188
6.03724 0.88192
6.03775 0.88192
6.04584 0.88166
6.05394 0.88146
6.06205 0.88132
6.07015 0.88124
6.07826 0.88121
6.08636 0.88125
6.08683 0.88125
6.09494 0.88099
6.10304 0.88079
6.11115 0.88065
6.11926 0.88057
6.12737 0.88054
6.13548 0.88058
6.13592 0.88058
6.14403 0.88032
6.15214 0.88013
6.16026 0.87998
6.16838 0.87990
6.17649 0.87988
6.18461 0.87991
6.18501 0.87991
6.19312 0.87965
6.20124 0.87946
6.20936 0.87931
6.21749 0.87923
6.22561 0.87921
6.23373 0.87924
6.23410 0.87924
6.24222 0.87898
6.25034 0.87878
6.25847 0.87864
6.26660 0.87856
6.27473 0.87854
6.28286 0.87857
6.28319 0.87857
6.29131 0.87831
6.29944 0.87811
6.30757 0.87797
6.31571 0.87789
6.32385 0.87787
6.33198 0.87790
6.33227 0.87790
6.34040 0.87764
6.34854 0.87744
6.35668 0.87730
6.36482 0.87722
6.37296 0.87720
6.38111 0.87723
6.38136 0.87723
6.38950 0.87697
6.39764 0.87677
6.40579 0.87663
6.41393 0.87655
6.42208 0.87653
6.43023 0.87656
6.43045 0.87656
6.43859 0.87631
6.44674 0.87611
6.45489 0.87597
6.46305 0.87588
6.47120 0.87586
6.47936 0.87589
6.47953 0.87589
6.48769 0.87564
6.49584 0.87544
6.50400 0.87530
6.51216 0.87521
6.52032 0.87519
6.52848 0.87522
6.52862 0.87522
6.53678 0.87496
6.54494 0.87477
6.55310 0.87463
6.56127 0.87454
6.56944 0.87452
6.57761 0.87455
6.57771 0.87455
6.58587 0.87430
6.59404 0.87410
6.60221 0.87396
6.61038 0.87387
6.61856 0.87385
6.62673 0.87388
6.62680 0.87388
6.63497 0.87363
6.64314 0.87343
6.65132 0.87329
6.65950 0.87320
6.66768 0.87318
6.67586 0.87322
6.67588 0.87322
6.68406 0.87296
6.69224 0.87276
6.70042 0.87262
6.70861 0.87253
6.71679 0.87251
6.72497 0.87254
6.73315 0.87229
6.74134 0.87209
6.74953 0.87195
6.75772 0.87186
6.76591 0.87184
6.77406 0.87188
6.78225 0.87162
6.79044 0.87142
6.79864 0.87128
6.80684 0.87119
6.81503 0.87117
6.82315 0.87120
6.83134 0.87095
6.83954 0.87075
6.84774 0.87061
6.85595 0.87053
6.86415 0.87050
6.87223 0.87054
6.88043 0.87028
6.88864 0.87008
6.89685 0.86994
6.90506 0.86986
6.91327 0.86983
6.92132 0.86987
6.92953 0.86961
6.93774 0.86941
6.94596 0.86927
6.95417 0.86918
6.96239 0.86916
6.97041 0.86919
6.97862 0.86894
6.98684 0.86874
6.99506 0.86860
7.00328 0.86852
7.01151 0.86849
7.01950 0.86853
7.02772 0.86827
7.03594 0.86807
7.04417 0.86793
7.05240 0.86785
7.06063 0.86782
7.06858 0.86786
7.07681 0.86760
7.08504 0.86740
7.09327 0.86726
7.10151 0.86718
7.10975 0.86715
7.11767 0.86719
7.12590 0.86693
7.13414 0.86673
7.14238 0.86659
7.15062 0.86651
7.15887 0.86649
7.16676 0.86652
7.17500 0.86626
7.18324 0.86606
7.19149 0.86592
7.19974 0.86584
7.20799 0.86582
7.21585 0.86585
7.22409 0.86559
7.23234 0.86539
7.24059 0.86525
7.24885 0.86517
7.25711 0.86515
7.26493 0.86518
7.27319 0.86492
7.28144 0.86472
7.28970 0.86458
7.29796 0.86450
7.30623 0.86448
7.31402 0.86451
7.32228 0.86425
7.33054 0.86405
7.33881 0.86391
7.34707 0.86383
7.35534 0.86381
7.36311 0.86384
7.37137 0.86358
7.37964 0.86338
7.38791 0.86324
7.39619 0.86316
7.40446 0.86314
7.41219 0.86317
7.42047 0.86291
7.42874 0.86271
7.43702 0.86257
7.44530 0.86249
7.45358 0.86247
7.46128 0.86250
7.46956 0.86224
7.47784 0.86204
7.48613 0.86190
7.49441 0.86182
7.50270 0.86180
7.51037 0.86183
7.51865 0.86157
7.52694 0.86137
7.53523 0.86123
7.54353 0.86115
7.55182 0.86113
7.55946 0.86116
7.56775 0.86090
7.57604 0.86070
7.58434 0.86056
7.59264 0.86048
7.60094 0.86046
7.60854 0.86049
7.61684 0.86023
7.62514 0.86003
7.63345 0.85989
7.64175 0.85981
7.65006 0.85979
7.65763 0.85982
7.66594 0.85956
7.67424 0.85936
7.68255 0.85922
7.69087 0.85914
7.69918 0.85912
7.70672 0.85915
7.71503 0.85889
7.72334 0.85869
7.73166 0.85855
7.73998 0.85847
7.74830 0.85845
7.75581 0.85848
7.76412 0.85822
7.77244 0.85802
7.78077 0.85788
7.78909 0.85780
7.79742 0.85778
7.80490 0.85781
7.81322 0.85755
7.82155 0.85735
7.82988 0.85721
7.83821 0.85713
7.84654 0.85711
7.85398 0.85714
7.86231 0.85688
7.87064 0.85668
7.87898 0.85654
7.88732 0.85646
7.89566 0.85644
7.90307 0.85647
7.91140 0.85621
7.91974 0.85601
7.92809 0.85587
7.93643 0.85579
7.94478 0.85577
7.95215 0.85580
7.96050 0.85554
7.96884 0.85534
7.97719 0.85520
7.98555 0.85512
7.99390 0.85510
8.00124 0.85513
8.00959 0.85487
8.01795 0.85468
8.02630 0.85453
8.03466 0.85445
8.04302 0.85443
8.05033 0.85446
8.05868 0.85420
8.06704 0.85400
8.07541 0.85386
8.08377 0.85378
8.09214 0.85376
8.09942 0.85379
8.10778 0.85353
8.11614 0.85333
8.12451 0.85319
8.13289 0.85311
8.14126 0.85309
8.14851 0.85312
8.15688 0.85287
8.16525 0.85267
8.17362 0.85253
8.18200 0.85245
8.19038 0.85243
8.19759 0.85246
8.20597 0.85220
8.21435 0.85200
8.22273 0.85186
8.23111 0.85178
8.23950 0.85175
8.24668 0.85178
8.25506 0.85153
8.26345 0.85133
8.27184 0.85119
8.28023 0.85111
8.28862 0.85109
8.29577 0.85112
8.30416 0.85086
8.31255 0.85066
8.32095 0.85052
8.32934 0.85044
8.33774 0.85042
8.34485 0.85045
8.35325 0.85019
8.36165 0.84999
8.37005 0.84985
8.37845 0.84977
8.38686 0.84975
8.39394 0.84978
8.40234 0.84952
8.41075 0.84932
8.41916 0.84918
8.42757 0.84910
8.43598 0.84908
8.44303 0.84911
8.45144 0.84885
8.45985 0.84865
8.46827 0.84851
8.47668 0.84843
8.48510 0.84841
8.49212 0.84844
8.50053 0.84818
8.50895 0.84798
8.51737 0.84784
8.52580 0.84776
8.53422 0.84774
8.54121 0.84777
8.54963 0.84751
8.55805 0.84731
8.56648 0.84717
8.57491 0.84709
8.58335 0.84707
8.59029 0.84710
8.59872 0.84684
8.60715 0.84664
8.61559 0.84650
8.62403 0.84642
8.63247 0.84640
8.63938 0.84643
8.64781 0.84617
8.65625 0.84597
8.66470 0.84583
8.67314 0.84575
8.68159 0.84573
8.68846 0.84576
8.69691 0.84550
8.70535 0.84530
8.71380 0.84516
8.72225 0.84508
8.73070 0.84506
8.73756 0.84509
8.74600 0.84483
8.75446 0.84463
8.76291 0.84449
8.77137 0.84441
8.77983 0.84439
8.78664 0.84442
8.79509 0.84416
8.80355 0.84396
8.81202 0.84382
8.82048 0.84374
8.82895 0.84372
8.83573 0.84375
8.84419 0.84349
8.85266 0.84329
8.86113 0.84315
8.86960 0.84307
8.87807 0.84305
8.88482 0.84308
8.89329 0.84282
8.90176 0.84262
8.91024 0.84248
8.91871 0.84240
8.92719 0.84238
8.93390 0.84241
8.94238 0.84215
8.95086 0.84195
8.95934 0.84181
8.96782 0.84173
8.97631 0.84171
8.98299 0.84174
8.99147 0.84148
8.99996 0.84128
9.00845 0.84114
9.01694 0.84106
9.02543 0.84104
9.03208 0.84107
9.04057 0.84081
9.04906 0.84061
9.05756 0.84047
9.06606 0.84039
9.07455 0.84037
9.08117 0.84040
9.08966 0.84014
9.09816 0.83994
9.10667 0.83980
9.11517 0.83972
9.12368 0.83971
9.13025 0.83973
9.13876 0.83947
9.14726 0.83927
9.15577 0.83913
9.16429 0.83905
9.17280 0.83904
9.17934 0.83906
9.18785 0.83880
9.19636 0.83860
9.20488 0.83846
9.21340 0.83838
9.22192 0.83836
9.22843 0.83839
9.23695 0.83813
9.24547 0.83793
9.25399 0.83779
9.26251 0.83771
9.27104 0.83770
9.27752 0.83772
9.28604 0.83746
9.29457 0.83726
9.30310 0.83712
9.31163 0.83704
9.32016 0.83703
9.32660 0.83705
9.33513 0.83679
9.34366 0.83659
9.35220 0.83645
9.36074 0.83637
9.36928 0.83636
9.37569 0.83638
9.38423 0.83612
9.39277 0.83592
9.40131 0.83578
9.40986 0.83570
9.41840 0.83569
9.42478 0.83571
9.43332 0.83545
9.44187 0.83525
9.45042 0.83511
9.45897 0.83504
9.46753 0.83502
9.47387 0.83505
9.48242 0.83478
9.49097 0.83458
9.49953 0.83444
9.50809 0.83437
9.51665 0.83435
9.52295 0.83437
9.53151 0.83411
9.54007 0.83391
9.54863 0.83377
9.55720 0.83370
9.56577 0.83368
9.57204 0.83371
9.58060 0.83344
9.58917 0.83324
9.59774 0.83310
9.60631 0.83303
9.61489 0.83301
9.62113 0.83304
9.62970 0.83277
9.63827 0.83257
9.64685 0.83243
9.65543 0.83236
9.66401 0.83234
9.67022 0.83237
9.67879 0.83210
9.68738 0.83190
9.69596 0.83176
9.70455 0.83169
9.71314 0.83167
9.71930 0.83169
9.72789 0.83143
9.73648 0.83123
9.74507 0.83110
9.75366 0.83102
9.76226 0.83100
9.76839 0.83103
9.77698 0.83077
9.78558 0.83057
9.79417 0.83043
9.80278 0.83035
9.81138 0.83033
9.81748 0.83036
9.82608 0.83010
9.83468 0.82989
9.84328 0.82976
9.85189 0.82968
9.86050 0.82966
9.86656 0.82969
9.87517 0.82943
9.88378 0.82922
9.89239 0.82909
9.90101 0.82901
9.90962 0.82899
9.91565 0.82902
9.92426 0.82876
9.93288 0.82856
9.94150 0.82842
9.95012 0.82834
9.95875 0.82832
9.96474 0.82835
9.97336 0.82809
9.98198 0.82788
9.99061 0.82775
9.99924 0.82767
10.00787 0.82765
10.01383 0.82768
10.02245 0.82742
10.03108 0.82722
10.03972 0.82708
10.04835 0.82700
10.05699 0.82699
10.06291 0.82701
10.07155 0.82675
10.08018 0.82655
10.08883 0.82641
10.09747 0.82633
10.10611 0.82631
10.11200 0.82634
10.12064 0.82608
10.12929 0.82588
10.13793 0.82574
10.14659 0.82566
10.15524 0.82565
10.16109 0.82567
10.16973 0.82541
10.17839 0.82521
10.18704 0.82507
10.19570 0.82499
10.20436 0.82498
10.21018 0.82500
10.21883 0.82474
10.22749 0.82454
10.23615 0.82440
10.24481 0.82432
10.25348 0.82431
10.25926 0.82433
10.26793 0.82407
10.27659 0.82387
10.28526 0.82373
10.29393 0.82365
10.30260 0.82364
10.30835 0.82366
10.31702 0.82340
10.32569 0.82320
10.33437 0.82306
10.34305 0.82298
10.35173 0.82297
10.35744 0.82299
10.36611 0.82273
10.37479 0.82253
10.38348 0.82239
10.39216 0.82231
10.40085 0.82230
10.40653 0.82232
10.41521 0.82206
10.42389 0.82186
10.43258 0.82172
10.44128 0.82164
10.44997 0.82163
10.45561 0.82165
10.46430 0.82139
10.47299 0.82119
